LabVIEW Measurement	
Writer_Version	2
Reader_Version	2
Separator	Tab
Decimal_Separator	.
Multi_Headings	No
X_Columns	No
Time_Pref	Absolute
Operator	lvuser
Date	2021/05/25
Time	16:03:50.707773537
***End_of_Header***	
	
Channels	5					
Samples	2000	2000	2000	2000	2000	
Date	2021/05/25	2021/05/25	2021/05/25	2021/05/25	2021/05/25	
Time	16:03:50.7077735870585883855	16:03:50.707773537	16:03:50.707773537	16:03:50.707773537	16:03:50.707773537	
Y_Unit_Label	Volts	Volts	Volts	Volts	Volts	
X_Dimension	Time	Time	Time	Time	Time	
X0	0.0000000000000000E+0	0.0000000000000000E+0	0.0000000000000000E+0	0.0000000000000000E+0	0.0000000000000000E+0	
Delta_X	0.001000	0.001000	0.001000	0.001000	0.001000	
***End_of_Header***						
X_Value	cisnienieKomoraGorna	sila1	sila2	sila3	sila1 1	Comment
	7.682966	-1.768420	40.219295	3.987349	42.438224	Masa: 0.00 [kg]\09Pozycja Y 5.00 [m]\09Pozycja Z 2.71 [m]\0A
	7.609082	-3.998431	40.377299	3.668674	40.047542
	7.239660	-3.201998	41.167316	3.190661	41.155979
	7.756851	-3.042711	41.325320	3.031324	41.313932
	7.141147	-3.201998	41.799330	3.668674	42.266006
	7.732223	-2.405565	41.483323	3.668674	42.746431
	7.264288	0.143018	41.799330	3.349999	45.292347
	7.732223	-2.724139	41.799330	3.349999	42.425190
	7.190404	-3.839144	41.167316	3.828011	41.156183
	7.904619	-3.042711	41.641327	3.509336	42.107951
	7.141147	-3.998431	40.535302	4.624699	41.161570
	8.126273	-4.157717	38.797264	2.712649	37.352195
	6.796354	-2.405565	43.221362	5.740061	46.555857
	7.609082	-3.839144	40.693306	2.393974	39.248135
	6.771725	-2.724139	41.325320	6.058736	44.659917
	7.510569	-4.476290	41.483323	3.190661	40.197694
	6.747097	-4.954149	40.693306	3.190661	38.929817
	7.264288	-3.201998	39.429278	3.190661	39.417941
	6.944122	-1.768420	44.011379	2.712649	44.955608
	7.141147	-2.724139	41.325320	4.306024	42.907205
	7.067263	-3.679858	41.009313	2.553311	39.882766
	7.559826	-5.272723	40.061292	1.756624	36.545193
	7.067263	-4.635576	38.481257	1.278611	35.124291
	7.535197	-1.609133	41.325320	2.234636	41.950823
	7.091891	-2.564852	42.905355	3.668674	44.009176
	7.067263	-2.086993	42.273341	3.668674	43.855022
	6.845610	-3.201998	41.009313	3.031324	40.838638
	7.042635	-4.794863	40.693306	2.393974	38.292416
	6.894866	-3.042711	40.851309	3.828011	41.636609
	7.141147	-4.157717	43.853376	4.465361	44.161020
	6.894866	-2.246279	38.639260	1.756624	38.149605
	6.747097	-3.998431	40.061292	4.306024	40.368885
	6.894866	-2.564852	43.063358	5.580724	46.079230
	6.894866	-1.609133	41.799330	6.855424	47.045621
	6.550072	-3.520571	42.115337	3.349999	41.944765
	6.796354	-4.635576	41.799330	5.262049	42.425802
	6.623957	-2.724139	41.167316	3.349999	41.793176
	6.820982	-1.927706	41.325320	3.987349	43.384962
	6.697841	-2.405565	41.641327	3.828011	43.063772
	6.919494	-3.201998	40.219295	4.624699	41.641996
	6.870238	-3.520571	42.273341	3.031324	41.784093
	6.673213	-3.520571	41.167316	3.987349	41.634094
	6.968750	-4.476290	40.535302	2.393974	38.452986
	6.180650	-2.405565	41.483323	4.465361	43.543119
	6.599328	0.461591	41.799330	3.987349	46.248270
	6.205278	-1.609133	43.221362	4.784036	46.396265
	6.476188	-2.564852	41.641327	4.146686	43.223161
	5.983625	-3.042711	41.009313	3.509336	41.475937
	6.402303	-2.405565	41.483323	4.784036	43.861794
	5.811228	-3.679858	40.219295	3.190661	39.730099
	6.623957	-3.839144	41.957334	2.712649	40.830838
	5.934369	-1.449847	41.167316	3.031324	42.748793
	6.476188	-2.564852	41.483323	3.668674	42.587145
	6.057510	-2.883425	39.113271	1.119274	37.349119
	6.870238	-2.724139	41.641327	3.668674	42.585862
	6.229906	-3.520571	42.747351	3.668674	42.895454
	6.500816	-3.839144	40.219295	2.393974	38.774125
	6.057510	-3.839144	40.693306	1.756624	38.610785
	6.648585	-2.883425	39.271274	1.597286	37.985135
	6.131394	-4.157717	38.165250	0.959936	34.967469
	6.796354	-3.679858	42.747351	1.278611	40.346105
	6.451560	-3.361285	39.113271	1.597286	37.349272
	6.500816	-4.794863	39.271274	0.959936	35.436347
	6.402303	-4.954149	39.903288	1.597286	36.546425
	6.845610	-4.157717	38.323253	0.800599	34.966135
	6.426932	-0.812701	42.431344	3.509336	45.127980
	6.353047	-2.883425	40.219295	2.075299	39.411169
	6.328419	-3.201998	39.745285	1.915961	38.459248
	6.599328	-3.679858	39.903288	1.597286	37.820717
	6.106766	-3.839144	39.745285	2.553311	38.459452
	6.525444	-3.679858	39.587281	3.668674	39.576097
	6.131394	-1.290560	41.641327	4.624699	44.975465
	6.451560	-3.839144	39.587281	3.031324	38.779461
	6.722469	-2.405565	41.325320	3.509336	42.429090
	6.402303	-3.839144	37.533236	2.075299	35.769390
	6.254535	-3.998431	40.851309	2.393974	39.246852
	6.254535	-4.954149	40.061292	3.190661	38.297803
	6.254535	-2.405565	41.009313	3.668674	42.272421
	6.205278	-3.839144	40.377299	4.465361	41.003516
	6.229906	-2.724139	40.535302	3.349999	41.161162
	6.008253	-2.086993	41.799330	4.624699	44.337036
	6.180650	-0.334841	38.797264	2.393974	40.856396
	5.786600	-2.564852	40.693306	4.624699	42.753152
	6.082138	-0.971987	42.431344	4.465361	45.924718
	6.008253	-2.883425	38.797264	4.146686	40.060525
	5.885113	-4.317003	41.641327	2.553311	39.877634
	5.909741	-2.883425	40.535302	5.899399	43.551276
	6.106766	-4.317003	39.271274	1.756624	36.710894
	5.737344	-4.157717	38.165250	2.234636	36.242169
	5.983625	-2.246279	40.693306	3.828011	42.275038
	5.909741	-2.564852	39.429278	4.943374	41.807799
	6.057510	-3.201998	40.693306	2.234636	39.725944
	5.589575	-3.998431	40.219295	5.102711	41.323576
	6.156022	-2.724139	41.325320	3.668674	42.269855
	5.515691	-4.635576	38.797264	1.597286	35.758973
	6.082138	-2.564852	37.533236	1.119274	36.087657
	5.367922	-2.883425	42.115337	4.306024	43.537936
	5.909741	-1.449847	41.167316	3.668674	43.386143
	5.269409	-3.201998	40.693306	4.465361	41.956669
	5.811228	-4.317003	40.535302	2.393974	38.612272
	5.220153	-3.839144	39.113271	3.031324	38.305450
	5.712716	-3.839144	43.853376	2.553311	42.567543
	5.589575	-1.768420	40.219295	2.234636	40.685512
	5.983625	-3.201998	40.693306	3.190661	40.681969
	5.072384	-0.812701	41.325320	3.509336	44.021955
	5.860485	-3.520571	38.323253	2.553311	37.355993
	5.023128	-2.246279	43.695372	4.465361	45.914454
	5.737344	-2.086993	41.799330	3.828011	43.540349
	5.170897	-2.246279	41.957334	3.668674	43.379728
	5.811228	-4.954149	40.851309	2.393974	38.291133
	5.121641	-4.635576	37.849243	0.959936	34.173602
	6.008253	0.461591	44.643393	4.784036	49.889021
	5.269409	-3.042711	40.851309	2.553311	40.361909
	5.761972	-2.564852	41.483323	3.349999	42.268470
	5.515691	-1.768420	41.799330	3.349999	43.380909
	6.550072	-3.679858	40.377299	3.509336	40.206777
	7.387429	-1.768420	42.905355	3.509336	44.646271
	9.037514	-2.724139	41.167316	3.190661	41.633839
	8.865117	-0.653414	42.273341	2.871986	44.491913
	10.884624	-1.768420	42.273341	3.668674	44.173595
	12.017518	-0.016268	41.325320	3.031324	44.340375
	14.086281	0.302305	46.223428	3.349999	49.875732
	14.628100	-1.131274	41.641327	2.712649	43.222702
	15.884135	-2.564852	40.535302	0.959936	38.930386
	16.943144	1.417310	43.221362	3.668674	48.307346
	18.223807	3.806608	42.747351	3.668674	50.222633
	19.504470	2.532316	45.433411	3.828011	51.793738
	22.090425	4.284467	44.327386	3.668674	52.280527
	24.282329	7.788771	48.435477	7.652111	63.876359
	27.483986	5.080900	47.487456	5.421386	57.989742
	28.592252	8.107344	47.803463	6.855424	62.766230
	30.463991	11.770933	50.805530	9.086149	71.662611
	32.557383	13.363798	50.173516	7.970786	71.508100
	34.970940	14.000944	51.911554	7.811449	73.723946
	36.941191	19.098112	55.703638	10.042174	84.843924
	39.404005	19.735258	54.913621	10.520186	85.169064
	41.152603	23.080275	60.759750	11.316874	95.156898
	45.117734	27.540297	62.181782	13.388261	103.110339
	48.171624	33.115324	67.395897	16.575011	117.086232
	51.742705	36.141768	69.449943	16.734348	122.326059
	55.289157	42.672514	73.400030	18.965074	135.037618
	58.983379	50.955412	80.668191	21.833149	153.456751
	62.751486	56.849013	84.934286	26.294599	168.077897
	62.948511	64.972624	93.150468	32.190086	190.313178
	66.987528	72.618376	100.102621	35.058161	207.779159
	71.100429	80.741988	105.790748	40.794311	227.327046
	75.582752	92.051329	119.221045	47.167811	258.440185
	79.572513	100.493514	123.961150	52.903961	277.358625
	83.956325	114.988585	136.443427	59.596136	311.028148
	88.290881	123.430770	146.081640	66.925661	336.438071
	91.566426	137.925841	158.089906	74.255186	370.270933
	95.063625	149.075896	168.202130	82.700074	399.978100
	97.526442	159.429519	181.316421	87.798873	428.544813
	100.654218	173.287444	192.218662	97.040448	462.546555
	103.584970	184.118926	203.594914	101.183223	488.897064
	105.308942	201.321868	216.867208	112.177511	530.366587
	106.392581	208.967620	226.189415	117.116974	552.274008
	108.215066	220.436248	240.409730	125.880536	586.726514
	112.426483	228.719146	246.887873	128.429936	604.036955
	115.061697	236.683471	256.842094	133.050724	626.576288
	119.297743	244.010650	264.742269	137.512174	646.265092
	121.070972	258.983581	277.224545	147.709774	683.917899
	124.272635	266.629333	286.546752	150.418511	703.594596
	127.178760	275.230804	293.498906	157.110686	725.840396
	129.469181	284.310135	303.927137	163.484186	751.721457
	130.552821	293.548751	311.985315	169.220336	774.754402
	131.808858	298.805206	317.041427	173.363111	789.209744
	133.926882	311.229553	330.629728	180.692636	822.551917
	134.173164	320.149597	337.423879	188.181499	845.754974
	134.493330	331.299652	348.168117	194.873674	874.341442
	135.872509	339.901123	356.858309	201.247174	898.006606
	137.300943	348.343308	364.126470	206.823986	919.293764
	138.556981	359.334076	378.346785	216.543574	954.224435
	139.246570	368.094833	384.192915	222.598399	974.886146
	139.960788	376.537018	392.251093	228.015874	996.803985
	139.345083	387.527787	403.785349	235.186061	1026.499196
	136.956149	395.651398	409.631478	240.922211	1046.205087
	137.744251	405.049302	421.481741	246.499024	1073.030066
	133.852997	412.854340	426.221846	249.845111	1088.921297
	133.508203	418.110794	432.699989	253.350536	1104.161319
	130.774475	420.340806	436.808080	255.421924	1112.570809
	131.168525	426.234406	440.600164	256.855961	1123.690531
	130.158770	429.260850	443.128220	257.971324	1130.360393
	127.375786	431.650147	448.500339	259.086686	1139.237172
	126.218261	433.561585	448.816346	260.202048	1142.579980
	126.587684	434.198731	448.658343	260.202048	1143.059122
	122.302381	434.039445	449.764367	260.680061	1144.483872
	117.647656	432.287293	447.394315	260.839398	1140.521006
	115.110954	431.809434	449.764367	260.839398	1142.413199
	110.702511	429.579423	446.288290	259.405361	1135.273074
	107.845643	428.145844	444.076241	258.449336	1130.671421
	104.643981	424.800827	442.338203	257.652648	1124.791678
	100.974385	421.933671	438.388115	257.971324	1118.293109
	97.255532	418.429367	437.282091	255.740599	1111.452057
	94.817344	413.332200	432.067975	255.740599	1101.140773
	93.979986	406.801453	425.747835	248.570411	1081.119699
	91.073863	399.474274	418.953685	246.817699	1065.245657
	86.172859	394.536392	412.633545	242.356249	1049.526186
	83.513018	388.961365	409.631478	240.284861	1038.877704
	78.193337	381.634186	401.257293	234.389374	1017.280852
	75.582752	372.714142	393.515121	230.724611	996.953874
	70.558609	364.590530	387.510988	225.466474	977.567992
	67.578603	356.785492	378.346785	221.005024	956.137301
	63.982893	347.228302	372.500656	213.675499	933.404456
	60.756606	336.396820	359.386365	208.098686	903.881871
	56.988499	327.158203	350.854176	199.653799	877.666178
	53.934609	320.786743	342.321987	195.829699	858.938429
	50.831463	309.158828	332.999781	188.500174	830.658783
	50.215760	297.053055	324.941602	182.923361	804.918018
	46.176744	286.380859	312.775333	174.478474	773.634665
	41.817563	276.345809	303.927137	170.335699	750.608645
	39.108468	263.125030	291.918871	160.297436	715.341337
	35.389619	255.160705	282.596664	155.198636	692.956005
	32.434242	246.718521	272.484440	149.462486	668.665447
	29.478865	234.772033	266.164300	143.248324	644.184657
	26.966795	223.462692	253.366017	136.556149	613.384857
	24.282329	211.516204	242.463775	128.270599	582.250578
	21.721002	201.481155	232.825562	123.649811	557.956527
	19.233561	192.083251	222.713338	117.116974	531.913562
	16.893888	181.570342	214.813163	110.902811	507.286316
	15.859506	174.880309	205.016946	105.166661	485.063916
	14.406447	162.296676	196.326753	100.227198	458.850627
	11.845121	151.465193	186.846543	93.535024	431.846760
	10.244292	143.341582	177.524337	89.392249	410.258167
	8.200157	132.828673	172.942235	81.903386	387.674294
	6.870238	123.430770	161.407980	79.194648	364.033397
	5.515691	116.422164	154.297822	73.458498	344.178484
	4.579822	109.094985	146.081640	68.837711	324.014336
	2.806596	99.856368	137.391448	63.579574	300.827389
	2.387918	92.847762	133.757367	60.870836	287.475965
	1.008743	83.927717	124.119154	54.019324	262.066194
	1.649074	76.122679	118.747034	51.151249	246.020962
	0.319155	70.866225	112.900905	47.327149	231.094278
	0.885602	64.813338	105.790748	45.096424	215.700509
	0.516180	57.167586	103.894706	40.953649	202.015940
	1.033371	53.185423	96.468541	37.926236	187.580200
	0.860974	49.681120	92.834461	34.580149	177.095729
	1.821471	43.787519	88.568366	33.305449	165.661334
	1.550562	39.008924	83.196247	30.756049	152.961220
	2.387918	35.186048	82.722237	28.047311	145.955596
	1.821471	30.088881	76.086090	25.338573	131.513544
	2.264777	29.133161	78.930153	25.019899	133.083213
	1.575190	25.628858	72.926020	23.426524	121.981402
	1.279652	25.788145	70.239960	22.311161	118.339266
	0.614693	19.416685	67.711904	20.399111	107.527700
	1.353536	18.142393	65.657859	20.877123	104.677375
	0.565436	19.575972	68.027911	22.311161	109.915044
	1.452049	13.204512	62.655792	17.849711	93.710014
	1.057999	10.018782	59.179715	16.575011	85.773508
	2.190893	10.974500	60.601747	17.371699	88.947946
	1.846099	11.133787	58.389698	15.459649	84.983133
	2.461802	8.266630	55.861642	15.459649	79.587920
	2.067752	6.355192	54.755617	13.228924	74.339733
	2.117009	5.718046	52.701572	14.503624	72.923241
	1.353536	4.443754	51.911554	12.432236	68.787544
	1.624446	3.169462	50.805530	12.591574	66.566565
	0.688577	3.328748	50.173516	10.679524	64.181788
	1.673702	5.399473	50.173516	12.113561	67.686550
	1.156511	2.054456	46.697439	7.970786	56.722681
	1.673702	3.806608	50.489523	11.635549	65.931679
	1.230396	1.258024	46.223428	7.492774	54.974226
	2.166265	-1.768420	44.327386	7.811449	50.370415
	1.673702	-0.812701	44.011379	5.262049	48.460727
	2.338662	-1.449847	42.747351	6.377411	47.674916
	1.649074	-0.334841	45.275407	5.580724	50.521290
	2.092380	-2.564852	39.429278	4.784036	41.648462
	1.279652	0.461591	40.693306	3.031324	44.186221
	1.772215	-2.246279	40.851309	4.306024	42.911054
	1.107255	-3.042711	39.113271	2.393974	38.464533
	1.525933	-2.086993	40.535302	3.349999	41.798308
	1.230396	-3.839144	38.955267	0.641261	35.757384
	1.722958	-3.201998	38.955267	3.349999	39.103268
	1.279652	-3.839144	36.743218	-0.792777	32.111298
	2.289405	-1.609133	37.059225	-0.792777	34.657316
	1.550562	-4.317003	34.215162	-1.908139	27.990020
	2.461802	-3.998431	39.113271	-1.748802	33.366039
	1.673702	-3.520571	35.637194	-1.908139	30.208484
	2.117009	-2.086993	37.375232	-0.792777	34.495463
	1.649074	-4.157717	33.741152	-3.342177	26.241258
	2.067752	-5.113436	31.371099	-4.616877	21.640787
	1.747587	-0.175555	36.743218	-2.226814	34.340850
	2.314034	-3.201998	34.373166	-4.298202	26.872966
	1.870727	-3.839144	35.163183	-2.386151	28.937888
	2.560315	-2.883425	34.847176	-3.660852	28.302900
	2.190893	-4.157717	32.635127	-3.820189	24.657221
	3.028249	-2.564852	39.587281	-1.908139	35.114290
	2.683456	-3.042711	34.531169	-2.704827	28.783631
	3.249903	-0.812701	34.689173	-3.342177	30.534296
	2.584943	-1.131274	36.585215	-1.111452	34.342490
	3.003621	-2.405565	33.899155	-3.660852	27.832738
	2.634199	-3.042711	36.427211	-2.704827	30.679673
	2.880481	-3.361285	36.269208	-3.023502	29.884422
	2.732712	-2.086993	36.585215	-1.908139	32.590083
	3.299159	-3.839144	35.321187	-3.979527	27.502516
	3.028249	-3.361285	35.795197	-0.792777	31.641136
	3.422299	-1.768420	38.955267	-2.704827	34.482021
	3.077506	-0.653414	37.691239	-1.270789	35.767036
	3.471556	-1.449847	37.849243	-2.386151	34.013245
	2.954365	-2.086993	38.007246	-0.792777	35.127477
	3.373043	-0.175555	37.217229	-0.952114	36.089560
	3.003621	0.143018	41.483323	-0.474102	41.152240
	3.274531	1.258024	40.851309	1.119274	43.228607
	2.461802	0.780165	41.009313	0.959936	42.749413
	3.151390	2.691602	41.325320	0.641261	44.658183
	2.584943	-0.175555	39.271274	-0.474102	38.621618
	3.471556	-0.494128	42.431344	0.959936	42.897153
	2.732712	2.054456	41.641327	2.553311	46.249094
	3.373043	-0.175555	41.483323	1.119274	42.427042
	2.683456	0.461591	43.379365	3.349999	47.190955
	3.397671	0.461591	40.219295	1.597286	42.278173
	2.806596	2.054456	43.221362	3.349999	48.625817
	3.077506	-0.016268	41.799330	1.756624	43.539686
	2.363290	-1.609133	41.167316	2.712649	42.270832
	2.757340	0.620878	42.589348	2.393974	45.604199
	2.141637	-0.016268	42.431344	4.943374	47.358450
	2.806596	-0.016268	42.747351	2.712649	45.443732
	2.166265	-0.016268	41.641327	4.146686	45.771745
	2.880481	0.302305	40.693306	0.322586	41.318197
	2.166265	0.461591	43.537369	4.943374	48.942334
	2.658827	0.461591	42.273341	3.349999	46.084930
	2.363290	-0.653414	44.011379	3.668674	47.026639
	2.757340	-1.768420	41.957334	2.393974	42.582888
	2.092380	-0.812701	42.589348	4.624699	46.401346
	2.240149	-0.175555	44.327386	3.828011	47.979843
	2.240149	-1.927706	41.641327	3.668674	43.382294
	2.412546	-3.520571	42.273341	0.641261	39.394030
	1.870727	1.895170	41.957334	5.580724	49.433227
	2.757340	0.143018	44.485390	4.943374	49.571782
	1.944612	-2.086993	43.853376	5.740061	47.506444
	2.387918	-3.520571	40.377299	1.597286	38.454014
	2.166265	-1.609133	43.853376	5.102711	47.346954
	2.289405	-3.201998	43.063358	3.031324	42.892684
	1.993868	-0.016268	44.327386	6.696086	51.007204
	2.141637	-0.334841	43.379365	3.987349	47.031873
	1.969240	-3.042711	41.799330	2.712649	41.469267
	1.895355	-3.201998	40.377299	2.553311	39.728612
	2.166265	-3.042711	43.853376	3.190661	44.001325
	1.772215	-3.361285	41.325320	2.553311	40.517346
	1.919983	-2.883425	42.589348	2.553311	42.259234
	1.501305	-2.405565	42.589348	3.828011	44.011793
	2.240149	-0.016268	41.009313	3.031324	44.024368
	1.279652	-3.998431	42.431344	1.915961	40.348875
	1.895355	-2.564852	43.063358	3.987349	44.485855
	1.427421	-2.883425	42.589348	3.349999	43.055921
	2.141637	-4.794863	41.799330	1.756624	38.761091
	1.328908	-4.317003	41.167316	3.349999	40.200311
	1.895355	-3.042711	44.643393	2.075299	43.675980
	1.624446	-1.768420	41.641327	2.712649	42.585556
	2.190893	-4.157717	41.009313	1.437949	38.289544
	1.796843	-2.405565	41.957334	3.031324	42.583092
	2.314034	-4.635576	39.587281	0.800599	35.752303
	2.067752	-5.750582	41.957334	1.756624	37.963375
	2.363290	-5.750582	39.113271	-0.474102	32.888587
	1.969240	-5.113436	40.693306	1.597286	37.177156
	2.412546	-6.069155	40.693306	0.641261	35.265412
	1.919983	-4.476290	39.429278	1.756624	36.709611
	2.708084	-3.520571	41.799330	0.003911	38.282670
	2.314034	-3.520571	40.693306	1.915961	39.088696
	2.560315	-4.317003	41.167316	0.959936	37.810249
	2.437174	-3.361285	41.167316	1.915961	39.721993
	2.289405	-4.635576	38.481257	0.481924	34.327604
	2.314034	-4.635576	40.851309	-0.792777	35.422956
	2.240149	-3.520571	39.745285	0.800599	37.025312
	2.289405	-2.246279	40.061292	-0.314764	37.500249
	2.240149	-4.476290	40.061292	0.481924	36.066925
	2.609571	-3.520571	41.009313	0.163249	37.651990
	2.387918	-2.724139	42.431344	1.278611	40.985817
	2.092380	-1.131274	41.957334	2.871986	43.698046
	2.215521	-4.317003	41.325320	1.119274	38.127590
	2.412546	-2.724139	41.325320	-0.633439	37.967742
	2.018496	-1.609133	39.587281	0.800599	38.778747
	2.486431	-2.564852	41.799330	2.393974	41.628452
	2.215521	-3.201998	41.799330	0.800599	39.397931
	2.486431	-2.564852	41.641327	3.031324	42.107798
	1.993868	-2.564852	41.167316	0.959936	39.562400
	2.584943	-2.724139	40.693306	2.553311	40.522478
	2.240149	-1.768420	41.641327	1.278611	41.151518
