LabVIEW Measurement	
Writer_Version	2
Reader_Version	2
Separator	Tab
Decimal_Separator	.
Multi_Headings	No
X_Columns	No
Time_Pref	Absolute
Operator	lvuser
Date	2021/05/25
Time	17:02:36.692671712
***End_of_Header***	
	
Channels	5					
Samples	2000	2000	2000	2000	2000	
Date	2021/05/25	2021/05/25	2021/05/25	2021/05/25	2021/05/25	
Time	17:02:36.6926717620585883855	17:02:36.692671712	17:02:36.692671712	17:02:36.692671712	17:02:36.692671712	
Y_Unit_Label	Volts	Volts	Volts	Volts	Volts	
X_Dimension	Time	Time	Time	Time	Time	
X0	0.0000000000000000E+0	0.0000000000000000E+0	0.0000000000000000E+0	0.0000000000000000E+0	0.0000000000000000E+0	
Delta_X	0.001000	0.001000	0.001000	0.001000	0.001000	
***End_of_Header***						
X_Value	cisnienieKomoraGorna	sila1	sila2	sila3	sila1 1	Comment
	7.338172	-2.883425	40.061292	4.943374	42.121240	Masa: 0.00 [kg]\09Pozycja Y 5.00 [m]\09Pozycja Z 2.71 [m]\0A
	7.535197	-3.679858	38.797264	1.915961	37.033367
	7.387429	-0.812701	41.957334	6.218074	47.362707
	7.362801	-4.157717	38.955267	2.553311	37.350861
	7.165776	-1.768420	41.799330	3.987349	44.018259
	7.559826	-1.768420	40.377299	5.580724	44.189603
	7.313544	-2.564852	41.167316	3.668674	42.271138
	7.781479	-3.998431	38.481257	1.915961	36.398787
	7.338172	-2.883425	39.429278	0.481924	37.027776
	7.510569	-3.361285	40.377299	3.509336	40.525350
	7.338172	-2.405565	41.641327	5.262049	44.497810
	7.535197	-2.086993	39.429278	3.031324	40.373609
	7.362801	-2.086993	42.589348	4.146686	44.649041
	7.535197	-4.157717	38.955267	1.597286	36.394836
	6.944122	-2.405565	41.641327	3.509336	42.745097
	7.190404	-3.839144	42.115337	3.509336	41.785529
	7.042635	-3.042711	41.009313	3.509336	41.475937
	6.747097	-3.998431	42.589348	2.393974	40.984891
	6.894866	-3.361285	41.483323	2.712649	40.834687
	7.288916	-4.635576	39.429278	2.075299	36.869000
	6.845610	-2.724139	41.641327	5.102711	44.019899
	7.165776	-0.494128	40.693306	3.509336	43.708514
	6.845610	-3.361285	39.587281	2.553311	38.779308
	7.091891	-3.201998	40.851309	1.756624	39.405935
	6.894866	-3.361285	39.271274	2.393974	38.303963
	6.968750	-7.662020	38.007246	2.393974	32.739200
	6.747097	-2.564852	43.379365	4.146686	44.961199
	7.042635	-3.042711	42.747351	3.987349	43.691988
	6.894866	-3.679858	44.327386	1.915961	42.563490
	7.067263	-4.635576	39.587281	1.756624	36.708328
	6.599328	-3.679858	41.483323	5.899399	43.702864
	6.845610	-2.405565	40.535302	2.871986	41.001723
	6.550072	-2.883425	40.219295	3.031324	40.367194
	6.697841	-2.883425	40.693306	2.393974	40.203854
	6.599328	-3.361285	39.587281	1.915961	38.141958
	6.796354	-5.113436	37.849243	4.465361	37.201168
	6.402303	-0.812701	42.747351	5.262049	47.196699
	7.165776	-1.927706	43.695372	5.580724	47.348390
	6.106766	-3.042711	41.167316	3.190661	41.315266
	6.574700	-3.201998	43.853376	2.393974	43.045351
	5.958997	-1.768420	42.273341	5.580724	46.085645
	6.451560	-1.290560	41.483323	3.190661	43.383424
	6.032881	-4.317003	40.377299	3.828011	39.888306
	6.353047	-4.794863	38.797264	1.915961	35.918362
	6.156022	-5.272723	38.639260	2.234636	35.601174
	6.303791	-4.794863	39.903288	1.756624	36.865049
	6.008253	-4.317003	38.323253	1.278611	35.284861
	6.451560	-4.157717	40.219295	3.668674	39.730252
	6.032881	-1.768420	41.957334	3.349999	43.538913
	6.525444	-4.476290	40.219295	2.871986	38.614991
	6.032881	-2.883425	39.587281	3.349999	40.053855
	6.156022	-3.520571	40.061292	2.234636	38.775357
	5.712716	-4.476290	39.271274	0.800599	35.595583
	6.180650	-4.476290	37.691239	1.119274	34.334223
	5.786600	-2.724139	41.009313	6.218074	44.503248
	6.377675	2.532316	44.327386	5.740061	52.599763
	5.934369	-7.980593	36.427211	-0.792777	27.653842
	6.082138	-5.909868	40.535302	-0.155427	34.470007
	5.737344	-6.069155	39.745285	1.597286	35.273415
	6.353047	-5.113436	39.903288	3.668674	38.458526
	5.712716	-4.157717	39.113271	2.393974	37.349527
	5.835856	-4.476290	38.797264	2.712649	37.033622
	5.614203	-0.175555	41.009313	5.102711	45.936469
	6.008253	-3.679858	39.903288	1.597286	37.820717
	5.392550	-2.883425	38.797264	2.393974	38.307812
	5.835856	-2.564852	39.587281	2.712649	39.735078
	5.540319	-3.839144	41.957334	5.102711	43.220901
	6.254535	-3.042711	40.535302	3.031324	40.523914
	5.294037	-4.635576	41.325320	1.119274	37.809017
	5.909741	-2.564852	40.693306	2.712649	40.841102
	5.244781	-4.954149	38.323253	1.278611	34.647715
	5.909741	-1.290560	41.483323	5.899399	46.092162
	5.491063	-0.175555	40.851309	3.668674	44.344428
	5.934369	-4.157717	39.113271	3.987349	38.942902
	5.318666	-5.272723	38.639260	1.119274	34.485811
	5.811228	-3.839144	42.747351	1.756624	40.664831
	5.392550	-1.927706	41.009313	2.234636	41.316243
	5.761972	-3.201998	40.377299	2.712649	39.887949
	5.466434	-3.201998	39.903288	4.784036	41.485326
	5.761972	-2.086993	40.377299	3.349999	41.640305
	5.220153	-5.113436	37.375232	3.190661	35.452457
	5.712716	-2.405565	40.535302	3.349999	41.479735
	5.220153	-3.520571	39.745285	1.756624	37.981337
	5.811228	-1.290560	40.535302	1.597286	40.842028
	5.318666	-4.157717	41.009313	1.915961	38.767557
	5.786600	-2.246279	41.325320	5.102711	44.181752
	5.441806	-4.157717	38.323253	2.712649	36.878185
	5.761972	-5.909868	38.165250	0.800599	33.055979
	5.121641	-3.998431	39.271274	2.075299	37.348142
	5.663459	-0.971987	42.115337	5.262049	46.405399
	5.121641	-2.724139	40.219295	3.987349	41.482505
	5.786600	-3.998431	38.955267	1.915961	36.872798
	5.146269	-1.768420	41.799330	4.306024	44.336934
	5.663459	0.461591	43.379365	4.624699	48.465655
	5.023128	-3.520571	41.009313	2.553311	40.042053
	5.638831	-2.564852	41.167316	1.597286	40.199750
	5.318666	-3.520571	40.535302	2.712649	39.727380
	5.638831	-2.883425	40.061292	4.784036	41.961903
	5.244781	-2.086993	39.271274	3.509336	40.693618
	5.712716	-3.201998	39.903288	1.756624	38.457914
	5.417178	-0.175555	38.639260	3.031324	41.495029
	5.835856	-5.272723	39.113271	0.800599	34.641147
	5.515691	-0.971987	43.695372	5.740061	48.463446
	5.712716	-2.246279	42.747351	4.943374	45.444446
	5.540319	-3.520571	39.587281	3.987349	40.054059
	5.515691	-4.954149	38.165250	0.800599	34.011699
	5.663459	-3.520571	40.061292	1.756624	38.297344
	5.688088	-2.246279	38.955267	1.437949	38.146937
	5.491063	-3.042711	41.325320	3.349999	41.632607
	5.712716	-2.564852	41.957334	4.306024	43.698505
	5.466434	-3.201998	41.009313	3.190661	40.997976
	5.614203	-2.405565	43.853376	4.146686	45.594496
	5.146269	-1.768420	41.799330	4.465361	44.496272
	5.392550	-3.201998	39.903288	1.915961	38.617251
	5.244781	-2.246279	39.903288	1.756624	39.413633
	5.515691	-2.086993	42.905355	4.943374	45.761736
	5.343294	-2.883425	39.745285	5.580724	42.442583
	5.441806	-3.998431	41.167316	3.031324	40.200209
	5.417178	-3.679858	39.745285	2.871986	38.937413
	5.417178	-1.768420	41.957334	3.509336	43.698250
	5.515691	-2.246279	42.589348	3.349999	43.693067
	5.417178	-0.334841	41.483323	4.784036	45.932518
	5.663459	-4.794863	38.797264	2.393974	36.396374
	5.589575	-1.768420	41.799330	5.421386	45.452297
	5.983625	-3.361285	40.219295	2.553311	39.411322
	6.353047	-1.609133	41.325320	3.509336	43.225523
	7.658338	-3.998431	39.271274	0.163249	35.436092
	8.618835	-0.812701	43.695372	4.465361	47.348033
	10.170408	2.373029	43.695372	7.014761	53.083163
	11.574211	-1.609133	44.485390	3.828011	46.704268
	12.978015	0.939451	44.011379	4.624699	49.575529
	13.544462	-1.290560	42.273341	3.031324	44.014104
	14.775869	-1.131274	42.747351	3.828011	45.444089
	15.465456	2.213743	43.853376	5.580724	51.647842
	15.810250	0.620878	40.693306	3.668674	44.982857
	16.228928	2.691602	43.853376	6.536749	53.081727
	18.076039	1.735883	43.063358	4.624699	49.423940
	19.455214	2.532316	44.327386	3.349999	50.209701
	22.459847	1.895170	44.485390	2.871986	49.252546
	24.479354	5.877333	47.013446	5.580724	58.471502
	27.336218	7.310911	46.697439	5.899399	59.907748
	29.257212	9.859495	48.435477	7.652111	65.947083
	31.621513	14.319517	50.015512	10.042174	74.377203
	33.197714	13.523085	51.437544	9.564161	74.524789
	35.340362	17.664534	55.229628	10.201511	83.095672
	36.694910	17.505247	57.125670	10.042174	84.673090
	38.886814	20.213117	56.493656	10.042174	86.748947
	39.256237	26.425291	62.971799	15.459649	104.856739
	42.384010	29.770307	64.235827	14.981636	108.987771
	44.994593	35.982481	67.395897	16.893686	120.272064
	48.639558	38.371778	70.871974	18.646399	127.890151
	50.856091	43.309660	75.138069	20.717786	139.165515
	55.018248	51.114699	79.720170	25.338573	156.173442
	57.259409	54.459715	84.618279	26.931949	166.009942
	61.520079	66.087630	93.150468	34.580149	193.818246
	63.638099	71.184798	99.470607	36.332861	206.988266
	67.923397	80.423414	107.528786	40.156961	228.109161
	70.336956	87.909880	113.532919	44.140399	245.583198
	74.302089	96.670637	120.959084	50.673236	268.302957
	74.154320	109.094985	129.965283	59.596136	298.656404
	77.257467	115.625731	138.971483	62.942224	317.539437
	80.311358	127.094359	147.977682	69.315723	344.387765
	82.330867	136.492263	158.405913	74.733199	369.631374
	84.842939	147.642318	168.518137	81.106699	397.267153
	85.828065	154.810210	175.312288	83.974773	414.097271
	87.872202	165.800979	188.110571	91.622974	445.534523
	89.103610	175.995315	194.588715	99.589849	470.173878
	90.433531	182.685348	202.646893	102.617261	487.949501
	92.920975	191.923965	211.179082	106.760036	509.863083
	93.758333	198.454711	217.973233	110.902811	527.330755
	95.654701	206.737609	223.977366	114.726911	545.441886
	96.516687	211.675490	230.929520	118.072999	560.678009
	96.516687	217.250518	237.407663	120.941074	575.599255
	98.610081	224.736984	245.307838	128.111261	598.156083
	98.216030	229.993438	252.417996	130.979336	613.390770
	99.742976	238.913482	258.264125	135.600124	632.777731
	98.954875	237.798476	257.316104	133.528736	628.643317
	99.890745	245.284942	263.794248	138.627536	647.706726
	98.954875	254.045700	272.484440	147.869111	674.399251
	98.757850	256.594284	274.538486	147.550436	678.683205
	98.019005	260.417159	277.698556	148.347124	686.462839
	97.526442	262.328598	279.910605	151.374536	693.613738
	96.467431	268.859344	287.336769	155.357974	711.554087
	96.048752	271.248642	290.338836	159.182074	720.769551
	94.989741	274.115798	293.498906	160.456774	728.071478
	94.891228	277.779388	296.342969	164.280874	738.403230
	92.674694	282.398696	300.451060	166.670936	749.520692
	91.763452	285.265853	300.451060	166.352261	752.069174
	88.537163	285.584427	302.663109	167.148949	755.396484
	86.788563	287.177291	305.033161	169.220336	761.430789
	84.448888	287.655151	302.505105	169.698349	759.858605
	81.789047	287.336578	305.823179	170.017024	763.176780
	78.907553	288.610870	307.403214	169.220336	765.234420
	76.075316	286.540145	305.665175	168.901661	761.106982
	73.587872	286.062286	307.087207	167.626961	760.776454
	71.297454	282.717269	301.557084	165.874249	750.148602
	67.874141	279.850113	298.871025	164.280874	743.002011
	68.366704	277.142242	295.552951	163.643524	736.338717
	64.820250	271.407928	292.550885	159.022736	722.981549
	62.357436	265.832901	285.282724	154.083274	705.198898
	59.278917	262.328598	284.492706	153.764599	700.585902
	56.791474	258.665008	279.752601	150.259174	688.676783
	52.653946	252.134262	275.170500	149.143811	676.448572
	50.535926	244.010650	267.586332	143.088986	654.685968
	47.334267	238.117050	262.372216	142.610974	643.100239
	45.019222	228.878433	253.998031	135.122111	617.998574
	41.275744	223.621978	247.993898	130.660661	602.276537
	38.960699	215.657653	242.463775	126.836561	584.957989
	35.635900	208.649047	233.457576	122.853124	564.959746
	34.576890	199.729003	226.979432	119.985049	546.693483
	33.443996	194.791122	223.977366	116.160949	534.929436
	30.907297	186.348937	214.339152	109.150098	509.838188
	28.838534	177.269607	210.389065	105.325998	492.984669
	26.400348	169.942427	199.960834	103.254611	473.157872
	23.321831	164.685973	196.010746	101.342561	462.039280
	21.721002	157.040221	188.742585	96.084423	441.867230
	18.667114	147.642318	178.946368	89.392249	415.980934
	17.214054	139.518706	170.730186	84.293449	394.542341
	14.455703	136.332976	166.938102	81.584711	384.855789
	13.569090	124.227202	157.299889	74.733199	356.260289
	11.598839	118.015029	152.401780	72.183799	342.600607
	10.786111	109.094985	147.977682	71.705786	328.778453
	9.776358	101.608519	139.287490	63.738911	304.634920
	9.259167	97.785643	132.651343	61.189511	291.626497
	7.338172	90.458464	126.647210	56.250049	273.355722
	6.796354	86.794875	122.381115	53.541311	262.717301
	5.220153	78.830550	116.060975	50.832574	245.724098
	4.776847	73.096236	111.478874	47.167811	231.742920
	3.767093	67.043349	108.160800	47.327149	222.531297
	3.299159	61.627607	101.366650	41.431661	204.425918
	2.018496	57.804731	99.312604	38.722924	195.840259
	2.437174	51.911131	92.834461	35.536174	180.281765
	1.673702	50.955412	88.410363	33.305449	172.671223
	2.215521	43.468946	85.724303	32.508761	161.702011
	1.328908	40.601790	82.880240	30.437373	153.919403
	2.043124	34.708189	78.772149	29.003336	142.483674
	1.304280	32.000318	75.770083	25.816586	133.586987
	1.821471	30.248167	74.348051	23.904536	128.500754
	1.082627	26.743864	71.661992	21.514474	119.920329
	1.993868	25.469572	69.923953	21.992486	117.386011
	1.378165	21.168837	66.605880	23.107848	110.882565
	2.190893	20.372404	64.235827	20.399111	105.007342
	1.698330	15.753096	59.495722	15.140974	90.389791
	2.166265	12.726652	58.547701	14.662961	85.937314
	1.821471	10.974500	55.703638	13.228924	79.907062
	2.314034	9.540922	55.387631	14.503624	79.432177
	1.722958	11.611647	56.651659	14.822299	83.085604
	2.387918	6.514479	52.701572	12.272899	71.488949
	1.649074	3.965895	53.175582	9.086149	66.227625
	2.511059	6.514479	51.121537	8.926811	66.562826
	1.649074	4.443754	51.911554	10.042174	66.397481
	2.215521	5.080900	50.489523	10.042174	65.612596
	1.599818	1.417310	46.697439	9.404824	57.519573
	2.190893	3.169462	45.433411	7.970786	56.573659
	1.624446	1.735883	46.381432	7.014761	55.132076
	2.264777	2.213743	46.065425	7.333436	55.612604
	1.698330	0.939451	44.011379	4.624699	49.575529
	2.437174	-0.971987	44.643393	3.509336	47.180742
	1.722958	0.302305	43.537369	4.784036	48.623710
	2.363290	-1.927706	40.693306	5.899399	44.664998
	1.427421	2.054456	41.325320	4.465361	47.845137
	1.993868	-1.609133	41.167316	3.031324	42.589507
	1.378165	-0.812701	40.219295	3.668674	43.075268
	2.067752	-3.520571	40.377299	1.756624	38.613351
	1.501305	-3.998431	40.693306	0.641261	37.336136
	1.870727	-2.883425	38.797264	1.119274	37.033112
	1.378165	-2.405565	41.325320	3.668674	42.588428
	2.363290	-1.131274	38.797264	1.597286	39.263276
	1.870727	-2.724139	38.165250	-0.155427	35.285685
	2.683456	-1.768420	38.639260	0.481924	37.352764
	1.772215	-2.405565	37.375232	-0.633439	34.336228
	3.126762	-3.839144	36.269208	2.075299	34.505362
	2.166265	-3.679858	36.901222	-0.155427	33.065938
	2.806596	-4.157717	36.111204	-0.952114	31.001373
	1.993868	-4.476290	36.269208	-1.430127	30.362791
	2.412546	-3.042711	39.429278	0.481924	36.868490
	2.314034	-4.317003	36.901222	0.481924	33.066142
	3.003621	0.302305	37.217229	0.641261	38.160795
	2.412546	-3.839144	37.375232	0.959936	34.496024
	3.249903	-4.476290	35.637194	-0.633439	30.527465
	3.052878	-5.113436	37.059225	-0.155427	31.790363
	3.274531	-3.520571	38.165250	-0.633439	34.011239
	2.732712	-2.564852	38.323253	0.322586	36.080987
	3.299159	-2.086993	38.797264	3.987349	40.697620
	2.855852	-0.971987	41.325320	1.278611	41.631944
	3.200646	-3.201998	38.007246	1.437949	36.243197
	2.757340	-2.246279	38.323253	1.756624	37.833598
	2.978993	-1.609133	39.429278	1.756624	39.576768
	2.954365	-1.609133	39.113271	0.641261	38.145399
	3.274531	-2.246279	37.375232	1.278611	36.407564
	2.781968	-1.768420	39.903288	3.668674	41.803542
	3.373043	-0.971987	40.061292	1.756624	40.845928
	2.905109	-4.476290	38.323253	0.481924	34.328887
	2.954365	-1.131274	39.903288	1.437949	40.209963
	3.077506	-1.290560	40.851309	2.712649	42.273398
	3.619325	-1.131274	39.271274	0.641261	38.781262
	3.225274	-0.175555	40.061292	3.509336	43.395073
	2.806596	-1.609133	40.219295	3.509336	42.119498
	2.609571	-0.175555	38.797264	2.393974	41.015683
	3.077506	-1.131274	41.641327	2.393974	42.904027
	2.880481	-0.971987	42.905355	1.278611	43.211979
	3.102134	-1.290560	41.167316	2.234636	42.111392
	3.126762	-2.246279	44.327386	4.784036	46.865143
	2.905109	-1.131274	41.009313	3.031324	42.909363
	2.855852	-0.494128	42.115337	2.712649	44.333858
	2.978993	1.258024	41.325320	3.509336	46.092680
	2.954365	-3.361285	39.271274	0.959936	36.869926
	2.757340	-1.131274	39.587281	4.624699	43.080706
	3.052878	-2.246279	41.799330	3.987349	43.540400
	2.954365	-2.564852	40.535302	4.306024	42.276474
	2.732712	-3.839144	39.587281	1.119274	36.867411
	2.683456	-0.653414	44.011379	3.509336	46.867301
	2.855852	-1.131274	41.483323	1.915961	42.268011
	2.486431	-1.768420	41.009313	3.987349	43.228242
	2.708084	-1.290560	42.431344	5.899399	47.040183
	2.289405	-1.290560	42.431344	4.306024	45.446808
	2.683456	-3.042711	40.061292	3.349999	40.368578
	2.363290	-0.971987	41.799330	3.828011	44.655354
	2.658827	-2.246279	43.221362	3.031324	44.006406
	2.412546	1.417310	42.273341	2.393974	46.084625
	2.683456	-3.042711	43.063358	3.509336	43.529983
	2.387918	-1.131274	42.431344	6.536749	47.836819
	2.584943	-4.794863	41.167316	3.190661	39.563114
	1.969240	-1.290560	43.221362	6.218074	48.148875
	2.560315	-1.927706	42.431344	4.306024	44.809662
	1.870727	-3.998431	40.535302	1.915961	38.452833
	2.412546	-0.812701	42.431344	4.306024	45.924667
	1.599818	-1.609133	43.853376	5.262049	47.506291
	2.511059	-1.131274	44.011379	7.333436	50.213542
	1.525933	-3.998431	41.325320	2.234636	39.561525
	2.043124	-2.564852	43.379365	3.509336	44.323849
	1.402793	-1.449847	42.431344	3.668674	44.650171
	1.870727	-4.317003	40.693306	2.871986	39.248288
	1.328908	-3.361285	41.325320	5.262049	43.226084
	2.215521	-3.520571	40.693306	3.509336	40.682071
	1.328908	-3.520571	41.799330	2.553311	40.832070
	2.117009	-2.724139	41.009313	1.756624	40.041798
	1.649074	-5.113436	41.641327	2.712649	39.240539
	2.092380	-3.679858	44.327386	3.668674	44.316202
	1.698330	-4.954149	41.009313	2.712649	38.767812
	2.240149	-3.520571	41.799330	4.465361	42.744120
	1.575190	-3.520571	40.851309	3.668674	40.999412
	2.166265	-3.839144	40.693306	2.234636	39.088798
	1.796843	-2.883425	38.481257	0.959936	36.557768
	2.190893	-4.794863	40.535302	2.393974	38.134413
	1.698330	-4.157717	40.535302	4.784036	41.161621
	2.314034	-4.794863	40.535302	1.915961	37.656400
	2.190893	-1.131274	43.537369	5.262049	47.668144
	2.461802	-2.883425	41.799330	3.668674	42.584579
	2.240149	-3.839144	39.745285	1.756624	37.662764
	2.363290	-6.228441	37.375232	-0.792777	30.354014
	2.289405	-2.086993	42.905355	4.943374	45.761736
	2.117009	-3.201998	40.219295	4.624699	41.641996
	2.338662	-3.679858	40.851309	2.553311	39.724763
	2.387918	-3.679858	40.693306	1.278611	38.292059
	2.387918	-4.476290	40.061292	1.915961	37.500963
	2.511059	-5.272723	38.955267	-0.633439	33.049106
	2.781968	-2.564852	39.587281	1.119274	38.141703
	2.461802	-4.317003	39.903288	1.915961	37.502246
	2.929737	-3.839144	39.271274	2.712649	38.144779
	2.584943	-4.476290	39.745285	1.278611	36.547606
	2.978993	-5.272723	36.427211	-0.633439	30.521050
	2.806596	-1.768420	41.641327	1.437949	41.310856
	3.151390	-4.476290	38.639260	0.322586	34.485556
	2.757340	3.488035	44.011379	7.174099	54.673513
	2.905109	-5.909868	40.377299	0.163249	34.630679
	2.806596	-1.131274	42.589348	2.712649	44.170723
	3.348415	-3.998431	39.587281	1.597286	37.186137
	2.880481	-5.432009	38.797264	0.003911	33.369166
	3.077506	-2.405565	40.535302	2.234636	40.364373
	2.215521	-3.042711	39.745285	1.119274	37.821846
	3.299159	-0.653414	41.167316	2.871986	43.385888
	2.314034	-3.520571	40.693306	0.959936	38.132671
	3.003621	-1.768420	41.799330	0.959936	40.990847
	2.511059	-2.564852	44.643393	0.800599	42.879140
	2.978993	-1.131274	42.431344	2.393974	43.694044
	2.609571	-2.246279	40.535302	2.553311	40.842334
	3.077506	-1.131274	41.641327	2.393974	42.904027
	2.511059	0.620878	41.799330	3.031324	45.451532
	2.954365	-2.405565	40.535302	2.553311	40.683048
	2.560315	-0.016268	43.221362	1.756624	44.961717
